
Filename:
	C:\Specimens\Pavlukova\2013\July\#2.raw

File Created:
	July 04, 2013 - 05:23 PM

Specimen Id:
	

Specimen Name:
	

Specimen Description:
	

Comment:
Scan Type: 2Theta Scan
Start Angle: 30 deg.
Stop Angle: 105 deg.
Num Points: 1501
Step Size: 0.05 deg.
Scan Rate: 1.000000
Scan Mode: Step
Wavelength: 1.540562
\Kalpha1: 1.540562	\Kalpha2: 1.544390	\Kbeta: 1.392218

Optics:
		Detector:
			 Type: Thin Film Attachment
		Tube: 
			 Type: Parabolic Mirror


Datas:
 Pos [deg]       Rate [CPS]      ESD [-]

Range 1 ---> Iteration 1
  30.000         19.33	     7.616
  30.050         22.33	     8.185
  30.100         24.67	     8.602
  30.150         25.67	     8.775
  30.200         24.33	     8.544
  30.250         23.00	     8.307
  30.300         23.33	     8.367
  30.350         25.33	     8.718
  30.400         25.00	     8.660
  30.450         22.33	     8.185
  30.500         26.33	     8.888
  30.550         26.33	     8.888
  30.600         19.00	     7.550
  30.650         22.67	     8.246
  30.700         24.00	     8.485
  30.750         27.67	     9.110
  30.800         26.33	     8.888
  30.850         23.33	     8.367
  30.900         16.67	     7.071
  30.950         23.67	     8.426
  31.000         26.00	     8.832
  31.050         28.33	     9.220
  31.100         21.67	     8.062
  31.150         26.00	     8.832
  31.200         31.33	     9.695
  31.250         25.00	     8.660
  31.300         27.67	     9.110
  31.350         30.67	     9.592
  31.400         27.33	     9.055
  31.450         25.33	     8.718
  31.500         29.00	     9.327
  31.550         23.00	     8.307
  31.600         24.33	     8.544
  31.650         28.33	     9.220
  31.700         23.33	     8.367
  31.750         19.67	     7.681
  31.800         23.33	     8.367
  31.850         31.67	     9.747
  31.900         20.33	     7.810
  31.950         20.67	     7.874
  32.000         23.00	     8.307
  32.050         23.67	     8.426
  32.100         21.00	     7.937
  32.150         21.00	     7.937
  32.200         28.00	     9.165
  32.250         26.00	     8.832
  32.300         28.33	     9.220
  32.350         25.00	     8.660
  32.400         29.67	     9.434
  32.450         29.33	     9.381
  32.500         31.33	     9.695
  32.550         34.00	    10.100
  32.600         36.33	    10.440
  32.650         41.00	    11.091
  32.700         54.33	    12.767
  32.750         55.00	    12.845
  32.800         61.67	    13.601
  32.850         62.33	    13.675
  32.900         73.33	    14.832
  32.950         64.67	    13.928
  33.000         61.67	    13.601
  33.050         53.33	    12.649
  33.100         54.33	    12.767
  33.150         50.67	    12.329
  33.200         42.67	    11.314
  33.250         51.67	    12.450
  33.300         46.33	    11.790
  33.350         67.00	    14.177
  33.400         62.67	    13.711
  33.450         59.00	    13.304
  33.500         63.33	    13.784
  33.550         65.00	    13.964
  33.600         64.00	    13.856
  33.650         64.33	    13.892
  33.700         63.00	    13.748
  33.750         62.00	    13.638
  33.800         53.67	    12.689
  33.850         52.33	    12.530
  33.900         54.33	    12.767
  33.950         62.33	    13.675
  34.000         68.00	    14.283
  34.050         62.33	    13.675
  34.100         57.00	    13.077
  34.150         55.00	    12.845
  34.200         59.67	    13.379
  34.250         56.33	    13.000
  34.300         58.00	    13.191
  34.350         62.67	    13.711
  34.400         65.00	    13.964
  34.450         57.33	    13.115
  34.500         85.33	    16.000
  34.550        100.33	    17.349
  34.600        133.00	    19.975
  34.650        167.33	    22.405
  34.700        224.00	    25.923
  34.750        324.67	    31.209
  34.800        435.33	    36.139
  34.850        548.33	    40.559
  34.900        687.33	    45.409
  34.950        744.67	    47.265
  35.000        794.33	    48.816
  35.050        796.33	    48.877
  35.100        761.67	    47.802
  35.150        705.67	    46.011
  35.200        624.00	    43.267
  35.250        527.00	    39.762
  35.300        386.00	    34.029
  35.350        306.33	    30.315
  35.400        241.00	    26.889
  35.450        201.00	    24.556
  35.500        163.33	    22.136
  35.550        156.00	    21.633
  35.600        150.67	    21.260
  35.650        132.33	    19.925
  35.700        133.67	    20.025
  35.750        118.33	    18.841
  35.800        122.67	    19.183
  35.850        102.33	    17.521
  35.900         92.67	    16.673
  35.950         83.33	    15.811
  36.000         61.33	    13.565
  36.050         79.67	    15.460
  36.100         65.00	    13.964
  36.150         65.67	    14.036
  36.200         66.33	    14.107
  36.250         59.33	    13.342
  36.300         71.67	    14.663
  36.350         75.33	    15.033
  36.400         61.00	    13.528
  36.450         66.00	    14.071
  36.500         71.00	    14.595
  36.550         69.33	    14.422
  36.600         75.00	    15.000
  36.650         72.00	    14.697
  36.700         77.00	    15.199
  36.750         80.00	    15.492
  36.800         75.33	    15.033
  36.850         75.67	    15.067
  36.900         68.33	    14.318
  36.950         68.00	    14.283
  37.000         72.67	    14.765
  37.050         73.33	    14.832
  37.100         78.67	    15.362
  37.150         75.00	    15.000
  37.200         90.33	    16.462
  37.250         98.67	    17.205
  37.300        104.00	    17.664
  37.350        103.00	    17.578
  37.400         96.33	    17.000
  37.450        107.67	    17.972
  37.500        119.00	    18.894
  37.550        105.00	    17.748
  37.600        104.33	    17.692
  37.650        106.00	    17.833
  37.700        112.67	    18.385
  37.750        122.33	    19.157
  37.800        139.33	    20.445
  37.850        159.67	    21.886
  37.900        185.00	    23.558
  37.950        244.67	    27.092
  38.000        302.00	    30.100
  38.050        378.00	    33.675
  38.100        449.00	    36.701
  38.150        562.67	    41.085
  38.200        661.00	    44.531
  38.250        697.67	    45.749
  38.300        696.00	    45.695
  38.350        717.33	    46.390
  38.400        704.00	    45.957
  38.450        687.67	    45.420
  38.500        650.33	    44.170
  38.550        580.00	    41.713
  38.600        529.67	    39.862
  38.650        460.33	    37.162
  38.700        401.33	    34.699
  38.750        406.67	    34.928
  38.800        437.67	    36.235
  38.850        550.67	    40.645
  38.900        656.67	    44.385
  38.950        807.00	    49.204
  39.000        890.00	    51.672
  39.050       1000.67	    54.791
  39.100       1004.00	    54.882
  39.150       1041.00	    55.884
  39.200       1061.67	    56.436
  39.250        982.00	    54.277
  39.300        848.67	    50.458
  39.350        648.67	    44.113
  39.400        502.67	    38.833
  39.450        361.33	    32.924
  39.500        327.33	    31.337
  39.550        323.33	    31.145
  39.600        392.00	    34.293
  39.650        458.33	    37.081
  39.700        560.00	    40.988
  39.750        737.67	    47.043
  39.800       1010.33	    55.055
  39.850       1358.67	    63.844
  39.900       1792.00	    73.321
  39.950       2251.67	    82.189
  40.000       2447.00	    85.680
  40.050       2671.33	    89.521
  40.100       2627.67	    88.786
  40.150       2677.67	    89.627
  40.200       2519.00	    86.931
  40.250       2241.33	    82.000
  40.300       1780.67	    73.089
  40.350       1345.33	    63.530
  40.400        977.33	    54.148
  40.450        712.00	    46.217
  40.500        527.00	    39.762
  40.550        396.00	    34.467
  40.600        289.67	    29.479
  40.650        248.00	    27.276
  40.700        206.67	    24.900
  40.750        169.67	    22.561
  40.800        166.67	    22.361
  40.850        133.33	    20.000
  40.900        127.67	    19.570
  40.950        112.00	    18.330
  41.000        102.33	    17.521
  41.050         97.00	    17.059
  41.100         92.00	    16.613
  41.150         83.67	    15.843
  41.200         95.33	    16.912
  41.250         75.33	    15.033
  41.300         83.00	    15.780
  41.350         76.33	    15.133
  41.400         63.67	    13.820
  41.450         74.33	    14.933
  41.500         76.33	    15.133
  41.550         74.67	    14.967
  41.600         85.67	    16.031
  41.650        106.33	    17.861
  41.700        122.00	    19.131
  41.750        151.00	    21.284
  41.800        174.67	    22.891
  41.850        195.67	    24.228
  41.900        196.00	    24.249
  41.950        182.33	    23.388
  42.000        171.00	    22.650
  42.050        186.67	    23.664
  42.100        152.67	    21.401
  42.150        135.33	    20.149
  42.200        112.00	    18.330
  42.250         88.00	    16.248
  42.300         81.00	    15.588
  42.350         55.67	    12.923
  42.400         51.67	    12.450
  42.450         51.67	    12.450
  42.500         57.00	    13.077
  42.550         49.33	    12.166
  42.600         48.00	    12.000
  42.650         46.67	    11.832
  42.700         47.67	    11.958
  42.750         46.33	    11.790
  42.800         41.33	    11.136
  42.850         45.67	    11.705
  42.900         48.67	    12.083
  42.950         39.33	    10.863
  43.000         44.67	    11.576
  43.050         34.33	    10.149
  43.100         40.67	    11.045
  43.150         37.33	    10.583
  43.200         35.00	    10.247
  43.250         28.67	     9.274
  43.300         33.67	    10.050
  43.350         34.33	    10.149
  43.400         37.00	    10.536
  43.450         30.00	     9.487
  43.500         36.67	    10.488
  43.550         29.00	     9.327
  43.600         30.00	     9.487
  43.650         34.00	    10.100
  43.700         30.33	     9.539
  43.750         33.67	    10.050
  43.800         27.00	     9.000
  43.850         32.00	     9.798
  43.900         30.00	     9.487
  43.950         27.67	     9.110
  44.000         22.00	     8.124
  44.050         30.67	     9.592
  44.100         31.00	     9.644
  44.150         26.33	     8.888
  44.200         28.67	     9.274
  44.250         34.00	    10.100
  44.300         36.67	    10.488
  44.350         36.00	    10.392
  44.400         37.67	    10.630
  44.450         34.67	    10.198
  44.500         44.00	    11.489
  44.550         39.33	    10.863
  44.600         34.67	    10.198
  44.650         33.33	    10.000
  44.700         41.33	    11.136
  44.750         44.33	    11.533
  44.800         44.33	    11.533
  44.850         48.67	    12.083
  44.900         51.67	    12.450
  44.950         45.33	    11.662
  45.000         51.00	    12.369
  45.050         47.00	    11.874
  45.100         47.00	    11.874
  45.150         50.33	    12.288
  45.200         51.00	    12.369
  45.250         38.67	    10.770
  45.300         38.33	    10.724
  45.350         45.67	    11.705
  45.400         38.67	    10.770
  45.450         38.00	    10.677
  45.500         34.33	    10.149
  45.550         38.00	    10.677
  45.600         31.67	     9.747
  45.650         35.00	    10.247
  45.700         34.67	    10.198
  45.750         33.67	    10.050
  45.800         34.33	    10.149
  45.850         28.00	     9.165
  45.900         34.00	    10.100
  45.950         35.33	    10.296
  46.000         30.00	     9.487
  46.050         33.00	     9.950
  46.100         34.67	    10.198
  46.150         37.00	    10.536
  46.200         36.33	    10.440
  46.250         43.67	    11.446
  46.300         44.00	    11.489
  46.350         41.00	    11.091
  46.400         53.67	    12.689
  46.450         58.00	    13.191
  46.500         63.33	    13.784
  46.550         79.67	    15.460
  46.600         79.33	    15.427
  46.650         91.00	    16.523
  46.700        109.33	    18.111
  46.750        127.33	    19.545
  46.800        160.67	    21.954
  46.850        201.33	    24.576
  46.900        248.33	    27.295
  46.950        295.67	    29.783
  47.000        367.33	    33.196
  47.050        422.33	    35.595
  47.100        471.00	    37.590
  47.150        451.33	    36.797
  47.200        451.00	    36.783
  47.250        441.00	    36.373
  47.300        381.00	    33.808
  47.350        333.67	    31.639
  47.400        263.67	    28.125
  47.450        189.00	    23.812
  47.500        133.00	    19.975
  47.550         89.33	    16.371
  47.600         68.67	    14.353
  47.650         47.67	    11.958
  47.700         38.00	    10.677
  47.750         32.00	     9.798
  47.800         34.67	    10.198
  47.850         26.00	     8.832
  47.900         26.00	     8.832
  47.950         29.00	     9.327
  48.000         26.00	     8.832
  48.050         27.67	     9.110
  48.100         26.33	     8.888
  48.150         23.33	     8.367
  48.200         18.00	     7.348
  48.250         22.67	     8.246
  48.300         22.00	     8.124
  48.350         19.00	     7.550
  48.400         21.00	     7.937
  48.450         18.00	     7.348
  48.500         20.00	     7.746
  48.550         18.00	     7.348
  48.600         20.33	     7.810
  48.650         17.00	     7.141
  48.700         19.00	     7.550
  48.750         16.33	     7.000
  48.800         19.67	     7.681
  48.850         19.67	     7.681
  48.900         13.33	     6.325
  48.950         18.33	     7.416
  49.000         20.67	     7.874
  49.050         17.67	     7.280
  49.100         18.33	     7.416
  49.150         19.00	     7.550
  49.200         19.00	     7.550
  49.250         16.00	     6.928
  49.300         19.33	     7.616
  49.350         13.67	     6.403
  49.400         16.67	     7.071
  49.450         16.33	     7.000
  49.500         15.67	     6.856
  49.550         17.33	     7.211
  49.600         17.33	     7.211
  49.650         16.33	     7.000
  49.700         19.67	     7.681
  49.750         14.67	     6.633
  49.800         21.67	     8.062
  49.850         15.33	     6.782
  49.900         22.33	     8.185
  49.950         18.33	     7.416
  50.000         17.67	     7.280
  50.050         17.33	     7.211
  50.100         18.67	     7.483
  50.150         14.00	     6.481
  50.200         18.00	     7.348
  50.250         21.33	     8.000
  50.300         20.33	     7.810
  50.350         25.33	     8.718
  50.400         14.00	     6.481
  50.450         26.33	     8.888
  50.500         21.67	     8.062
  50.550         22.33	     8.185
  50.600         23.33	     8.367
  50.650         22.00	     8.124
  50.700         28.33	     9.220
  50.750         22.67	     8.246
  50.800         24.33	     8.544
  50.850         22.33	     8.185
  50.900         22.00	     8.124
  50.950         19.00	     7.550
  51.000         17.67	     7.280
  51.050         16.67	     7.071
  51.100         19.67	     7.681
  51.150         21.33	     8.000
  51.200         22.67	     8.246
  51.250         19.00	     7.550
  51.300         18.67	     7.483
  51.350         21.67	     8.062
  51.400         18.00	     7.348
  51.450         19.67	     7.681
  51.500         23.33	     8.367
  51.550         26.00	     8.832
  51.600         20.00	     7.746
  51.650         29.00	     9.327
  51.700         23.00	     8.307
  51.750         20.00	     7.746
  51.800         26.67	     8.944
  51.850         29.67	     9.434
  51.900         32.33	     9.849
  51.950         32.67	     9.899
  52.000         38.00	    10.677
  52.050         37.67	    10.630
  52.100         39.00	    10.817
  52.150         37.67	    10.630
  52.200         33.67	    10.050
  52.250         34.67	    10.198
  52.300         36.67	    10.488
  52.350         40.67	    11.045
  52.400         39.00	    10.817
  52.450         62.00	    13.638
  52.500         67.67	    14.248
  52.550         80.33	    15.524
  52.600         94.00	    16.793
  52.650        113.33	    18.439
  52.700        143.00	    20.712
  52.750        155.33	    21.587
  52.800        178.00	    23.108
  52.850        197.67	    24.352
  52.900        222.67	    25.846
  52.950        200.00	    24.495
  53.000        211.33	    25.179
  53.050        182.67	    23.409
  53.100        176.67	    23.022
  53.150        159.33	    21.863
  53.200        143.67	    20.761
  53.250        116.00	    18.655
  53.300         92.00	    16.613
  53.350         67.33	    14.213
  53.400         50.00	    12.247
  53.450         44.00	    11.489
  53.500         39.67	    10.909
  53.550         37.00	    10.536
  53.600         37.33	    10.583
  53.650         27.00	     9.000
  53.700         35.67	    10.344
  53.750         28.67	     9.274
  53.800         28.33	     9.220
  53.850         21.67	     8.062
  53.900         27.00	     9.000
  53.950         35.67	    10.344
  54.000         31.33	     9.695
  54.050         31.67	     9.747
  54.100         40.33	    11.000
  54.150         36.33	    10.440
  54.200         48.33	    12.042
  54.250         47.33	    11.916
  54.300         54.33	    12.767
  54.350         49.67	    12.207
  54.400         60.33	    13.454
  54.450         52.33	    12.530
  54.500         41.67	    11.180
  54.550         39.00	    10.817
  54.600         28.00	     9.165
  54.650         21.00	     7.937
  54.700         31.33	     9.695
  54.750         20.33	     7.810
  54.800         22.67	     8.246
  54.850         16.33	     7.000
  54.900         22.00	     8.124
  54.950         17.33	     7.211
  55.000         17.33	     7.211
  55.050         15.33	     6.782
  55.100         14.00	     6.481
  55.150         14.33	     6.557
  55.200         21.67	     8.062
  55.250         15.33	     6.782
  55.300         15.67	     6.856
  55.350         18.67	     7.483
  55.400         14.00	     6.481
  55.450         19.33	     7.616
  55.500         14.00	     6.481
  55.550         15.33	     6.782
  55.600         15.33	     6.782
  55.650         15.00	     6.708
  55.700         17.67	     7.280
  55.750         16.00	     6.928
  55.800         16.33	     7.000
  55.850         16.00	     6.928
  55.900         15.33	     6.782
  55.950         19.00	     7.550
  56.000         12.00	     6.000
  56.050         13.67	     6.403
  56.100         18.33	     7.416
  56.150         16.67	     7.071
  56.200         16.67	     7.071
  56.250         18.67	     7.483
  56.300         18.33	     7.416
  56.350         16.00	     6.928
  56.400         15.67	     6.856
  56.450         12.33	     6.083
  56.500         13.33	     6.325
  56.550         17.33	     7.211
  56.600         15.00	     6.708
  56.650         18.00	     7.348
  56.700         15.33	     6.782
  56.750         11.33	     5.831
  56.800         15.67	     6.856
  56.850         18.33	     7.416
  56.900         12.00	     6.000
  56.950         13.33	     6.325
  57.000         18.33	     7.416
  57.050         15.33	     6.782
  57.100         16.67	     7.071
  57.150         19.33	     7.616
  57.200         17.00	     7.141
  57.250         15.67	     6.856
  57.300         15.00	     6.708
  57.350         17.67	     7.280
  57.400         17.00	     7.141
  57.450         12.67	     6.164
  57.500         19.00	     7.550
  57.550         18.67	     7.483
  57.600         14.00	     6.481
  57.650         11.00	     5.745
  57.700         20.00	     7.746
  57.750         13.00	     6.245
  57.800         15.00	     6.708
  57.850         15.00	     6.708
  57.900         16.00	     6.928
  57.950         22.33	     8.185
  58.000         16.67	     7.071
  58.050         16.67	     7.071
  58.100         15.00	     6.708
  58.150         17.00	     7.141
  58.200         15.00	     6.708
  58.250         17.33	     7.211
  58.300         20.33	     7.810
  58.350         15.67	     6.856
  58.400         17.67	     7.280
  58.450         20.33	     7.810
  58.500         18.33	     7.416
  58.550         20.67	     7.874
